# KaDE -l 6 --count Occurrences ode.4.12.2.ka --output ode.4.12.2 --output-plot ../data/ode.4.12.2.data
# [T] mono dimer q1 q2 
0.000000 2.000000 2.000000 0.000000 0.000000 
0.010000 1.926723 2.036638 0.009629 0.019258 
0.020000 1.865166 2.067417 0.018621 0.037242 
0.030000 1.813198 2.093401 0.027102 0.054205 
0.040000 1.768997 2.115501 0.035173 0.070346 
0.050000 1.731741 2.134130 0.042907 0.085814 
0.060000 1.699532 2.150234 0.050370 0.100739 
0.070000 1.672174 2.163913 0.057621 0.115242 
0.080000 1.648639 2.175680 0.064672 0.129344 
0.090000 1.628526 2.185737 0.071586 0.143173 
0.100000 1.611140 2.194430 0.078368 0.156736 
0.110000 1.596236 2.201882 0.085061 0.170122 
0.120000 1.583319 2.208341 0.091666 0.183332 
0.130000 1.572221 2.213890 0.098214 0.196429 
0.140000 1.562584 2.218708 0.104707 0.209414 
0.150000 1.554290 2.222855 0.111167 0.222333 
0.160000 1.547077 2.226461 0.117593 0.235186 
0.170000 1.540862 2.229569 0.124002 0.248005 
0.180000 1.535451 2.232274 0.130395 0.260790 
0.190000 1.530784 2.234608 0.136782 0.273564 
0.200000 1.526718 2.236641 0.143164 0.286327 
0.210000 1.523209 2.238396 0.149548 0.299096 
0.220000 1.520149 2.239926 0.155935 0.311871 
0.230000 1.517507 2.241247 0.162331 0.324662 
0.240000 1.515202 2.242399 0.168735 0.337470 
0.250000 1.513211 2.243395 0.175151 0.350301 
0.260000 1.511473 2.244263 0.181579 0.363157 
0.270000 1.509972 2.245014 0.188021 0.376041 
0.280000 1.508662 2.245669 0.194477 0.388954 
0.290000 1.507529 2.246236 0.200949 0.401897 
0.300000 1.506540 2.246730 0.207435 0.414871 
0.310000 1.505685 2.247157 0.213938 0.427876 
0.320000 1.504939 2.247530 0.220456 0.440911 
0.330000 1.504294 2.247853 0.226989 0.453977 
0.340000 1.503730 2.248135 0.233537 0.467073 
0.350000 1.503243 2.248378 0.240099 0.480198 
0.360000 1.502818 2.248591 0.246675 0.493350 
0.370000 1.502450 2.248775 0.253264 0.506529 
0.380000 1.502128 2.248936 0.259866 0.519732 
0.390000 1.501851 2.249075 0.266479 0.532958 
0.400000 1.501608 2.249196 0.273103 0.546207 
0.410000 1.501398 2.249301 0.279737 0.559473 
0.420000 1.501215 2.249393 0.286379 0.572758 
0.430000 1.501056 2.249472 0.293028 0.586057 
0.440000 1.500918 2.249541 0.299685 0.599370 
0.450000 1.500798 2.249601 0.306347 0.612693 
0.460000 1.500693 2.249653 0.313013 0.626026 
0.470000 1.500603 2.249699 0.319681 0.639363 
0.480000 1.500524 2.249738 0.326353 0.652705 
0.490000 1.500455 2.249772 0.333024 0.666048 
0.500000 1.500396 2.249802 0.339695 0.679390 
0.510000 1.500344 2.249828 0.346364 0.692728 
0.520000 1.500299 2.249851 0.353030 0.706060 
0.530000 1.500260 2.249870 0.359691 0.719383 
0.540000 1.500226 2.249887 0.366348 0.732695 
0.550000 1.500196 2.249902 0.372996 0.745993 
0.560000 1.500171 2.249915 0.379637 0.759275 
0.570000 1.500148 2.249926 0.386268 0.772537 
0.580000 1.500129 2.249936 0.392889 0.785779 
0.590000 1.500112 2.249944 0.399498 0.798995 
0.600000 1.500097 2.249951 0.406093 0.812187 
0.610000 1.500085 2.249958 0.412674 0.825347 
0.620000 1.500074 2.249963 0.419239 0.838478 
0.630000 1.500064 2.249968 0.425787 0.851574 
0.640000 1.500056 2.249972 0.432317 0.864634 
0.650000 1.500048 2.249976 0.438827 0.877654 
0.660000 1.500042 2.249979 0.445317 0.890634 
0.670000 1.500037 2.249982 0.451785 0.903569 
0.680000 1.500032 2.249984 0.458230 0.916460 
0.690000 1.500028 2.249986 0.464650 0.929300 
0.700000 1.500024 2.249988 0.471046 0.942092 
0.710000 1.500021 2.249990 0.477415 0.954830 
0.720000 1.500018 2.249991 0.483757 0.967513 
0.730000 1.500016 2.249992 0.490069 0.980139 
0.740000 1.500014 2.249993 0.496353 0.992706 
0.750000 1.500012 2.249994 0.502605 1.005211 
0.760000 1.500010 2.249995 0.508827 1.017653 
0.770000 1.500009 2.249996 0.515015 1.030029 
0.780000 1.500008 2.249996 0.521170 1.042339 
0.790000 1.500007 2.249997 0.527289 1.054579 
0.800000 1.500006 2.249997 0.533374 1.066749 
0.810000 1.500005 2.249997 0.539422 1.078844 
0.820000 1.500004 2.249998 0.545433 1.090867 
0.830000 1.500004 2.249998 0.551406 1.102811 
0.840000 1.500003 2.249998 0.557340 1.114680 
0.850000 1.500003 2.249999 0.563233 1.126467 
0.860000 1.500003 2.249999 0.569087 1.138175 
0.870000 1.500002 2.249999 0.574899 1.149799 
0.880000 1.500002 2.249999 0.580670 1.161340 
0.890000 1.500002 2.249999 0.586397 1.172794 
0.900000 1.500001 2.249999 0.592082 1.184164 
0.910000 1.500001 2.249999 0.597722 1.195444 
0.920000 1.500001 2.249999 0.603318 1.206636 
0.930000 1.500001 2.250000 0.608868 1.217737 
0.940000 1.500001 2.250000 0.614374 1.228747 
0.950000 1.500001 2.250000 0.619832 1.239664 
0.960000 1.500001 2.250000 0.625244 1.250489 
0.970000 1.500001 2.250000 0.630609 1.261218 
0.980000 1.500000 2.250000 0.635926 1.271853 
0.990000 1.500000 2.250000 0.641195 1.282390 
1.000000 1.500000 2.250000 0.646416 1.292832 
1.010000 1.500000 2.250000 0.651588 1.303176 
1.020000 1.500000 2.250000 0.656711 1.313422 
1.030000 1.500000 2.250000 0.661784 1.323568 
1.040000 1.500000 2.250000 0.666808 1.333616 
1.050000 1.500000 2.250000 0.671781 1.343562 
1.060000 1.500000 2.250000 0.676705 1.353409 
1.070000 1.500000 2.250000 0.681577 1.363155 
1.080000 1.500000 2.250000 0.686400 1.372799 
1.090000 1.500000 2.250000 0.691171 1.382342 
1.100000 1.500000 2.250000 0.695892 1.391783 
1.110000 1.500000 2.250000 0.700561 1.401122 
1.120000 1.500000 2.250000 0.705179 1.410358 
1.130000 1.500000 2.250000 0.709746 1.419492 
1.140000 1.500000 2.250000 0.714262 1.428524 
1.150000 1.500000 2.250000 0.718726 1.437452 
1.160000 1.500000 2.250000 0.723140 1.446279 
1.170000 1.500000 2.250000 0.727501 1.455002 
1.180000 1.500000 2.250000 0.731812 1.463624 
1.190000 1.500000 2.250000 0.736071 1.472142 
1.200000 1.500000 2.250000 0.740279 1.480559 
1.210000 1.500000 2.250000 0.744436 1.488872 
1.220000 1.500000 2.250000 0.748543 1.497085 
1.230000 1.500000 2.250000 0.752598 1.505195 
1.240000 1.500000 2.250000 0.756602 1.513205 
1.250000 1.500000 2.250000 0.760556 1.521113 
1.260000 1.500000 2.250000 0.764460 1.528921 
1.270000 1.500000 2.250000 0.768314 1.536627 
1.280000 1.500000 2.250000 0.772117 1.544235 
1.290000 1.500000 2.250000 0.775871 1.551742 
1.300000 1.500000 2.250000 0.779576 1.559151 
1.310000 1.500000 2.250000 0.783231 1.566461 
1.320000 1.500000 2.250000 0.786837 1.573674 
1.330000 1.500000 2.250000 0.790394 1.580788 
1.340000 1.500000 2.250000 0.793903 1.587806 
1.350000 1.500000 2.250000 0.797364 1.594728 
1.360000 1.500000 2.250000 0.800777 1.601554 
1.370000 1.500000 2.250000 0.804142 1.608284 
1.380000 1.500000 2.250000 0.807461 1.614921 
1.390000 1.500000 2.250000 0.810732 1.621463 
1.400000 1.500000 2.250000 0.813957 1.627913 
1.410000 1.500000 2.250000 0.817135 1.634271 
1.420000 1.500000 2.250000 0.820268 1.640537 
1.430000 1.500000 2.250000 0.823356 1.646711 
1.440000 1.500000 2.250000 0.826398 1.652796 
1.450000 1.500000 2.250000 0.829396 1.658791 
1.460000 1.500000 2.250000 0.832349 1.664698 
1.470000 1.500000 2.250000 0.835259 1.670517 
1.480000 1.500000 2.250000 0.838125 1.676250 
1.490000 1.500000 2.250000 0.840948 1.681895 
1.500000 1.500000 2.250000 0.843728 1.687456 
1.510000 1.500000 2.250000 0.846466 1.692932 
1.520000 1.500000 2.250000 0.849162 1.698325 
1.530000 1.500000 2.250000 0.851817 1.703634 
1.540000 1.500000 2.250000 0.854431 1.708862 
1.550000 1.500000 2.250000 0.857004 1.714009 
1.560000 1.500000 2.250000 0.859538 1.719076 
1.570000 1.500000 2.250000 0.862031 1.724062 
1.580000 1.500000 2.250000 0.864486 1.728971 
1.590000 1.500000 2.250000 0.866901 1.733802 
1.600000 1.500000 2.250000 0.869278 1.738557 
1.610000 1.500000 2.250000 0.871617 1.743235 
1.620000 1.500000 2.250000 0.873919 1.747839 
1.630000 1.500000 2.250000 0.876184 1.752368 
1.640000 1.500000 2.250000 0.878412 1.756824 
1.650000 1.500000 2.250000 0.880604 1.761208 
1.660000 1.500000 2.250000 0.882760 1.765521 
1.670000 1.500000 2.250000 0.884881 1.769763 
1.680000 1.500000 2.250000 0.886968 1.773936 
1.690000 1.500000 2.250000 0.889020 1.778039 
1.700000 1.500000 2.250000 0.891038 1.782075 
1.710000 1.500000 2.250000 0.893022 1.786044 
1.720000 1.500000 2.250000 0.894974 1.789947 
1.730000 1.500000 2.250000 0.896892 1.793785 
1.740000 1.500000 2.250000 0.898779 1.797558 
1.750000 1.500000 2.250000 0.900634 1.801268 
1.760000 1.500000 2.250000 0.902458 1.804915 
1.770000 1.500000 2.250000 0.904250 1.808501 
1.780000 1.500000 2.250000 0.906013 1.812026 
1.790000 1.500000 2.250000 0.907745 1.815490 
1.800000 1.500000 2.250000 0.909448 1.818896 
1.810000 1.500000 2.250000 0.911121 1.822243 
1.820000 1.500000 2.250000 0.912766 1.825532 
1.830000 1.500000 2.250000 0.914383 1.828765 
1.840000 1.500000 2.250000 0.915971 1.831942 
1.850000 1.500000 2.250000 0.917532 1.835064 
1.860000 1.500000 2.250000 0.919066 1.838132 
1.870000 1.500000 2.250000 0.920573 1.841146 
1.880000 1.500000 2.250000 0.922054 1.844108 
1.890000 1.500000 2.250000 0.923509 1.847017 
1.900000 1.500000 2.250000 0.924938 1.849876 
1.910000 1.500000 2.250000 0.926342 1.852685 
1.920000 1.500000 2.250000 0.927722 1.855444 
1.930000 1.500000 2.250000 0.929077 1.858154 
1.940000 1.500000 2.250000 0.930408 1.860816 
1.950000 1.500000 2.250000 0.931715 1.863431 
1.960000 1.500000 2.250000 0.933000 1.865999 
1.970000 1.500000 2.250000 0.934261 1.868522 
1.980000 1.500000 2.250000 0.935500 1.870999 
1.990000 1.500000 2.250000 0.936716 1.873432 
2.000000 1.500000 2.250000 0.937911 1.875822 
2.010000 1.500000 2.250000 0.939084 1.878168 
2.020000 1.500000 2.250000 0.940236 1.880473 
2.030000 1.500000 2.250000 0.941368 1.882735 
2.040000 1.500000 2.250000 0.942479 1.884957 
2.050000 1.500000 2.250000 0.943569 1.887139 
2.060000 1.500000 2.250000 0.944640 1.889281 
2.070000 1.500000 2.250000 0.945692 1.891384 
2.080000 1.500000 2.250000 0.946724 1.893449 
2.090000 1.500000 2.250000 0.947738 1.895476 
2.100000 1.500000 2.250000 0.948733 1.897466 
2.110000 1.500000 2.250000 0.949710 1.899420 
2.120000 1.500000 2.250000 0.950669 1.901338 
2.130000 1.500000 2.250000 0.951610 1.903220 
2.140000 1.500000 2.250000 0.952534 1.905069 
2.150000 1.500000 2.250000 0.953441 1.906883 
2.160000 1.500000 2.250000 0.954332 1.908664 
2.170000 1.500000 2.250000 0.955206 1.910411 
2.180000 1.500000 2.250000 0.956063 1.912127 
2.190000 1.500000 2.250000 0.956905 1.913811 
2.200000 1.500000 2.250000 0.957732 1.915463 
2.210000 1.500000 2.250000 0.958543 1.917085 
2.220000 1.500000 2.250000 0.959338 1.918677 
2.230000 1.500000 2.250000 0.960119 1.920239 
2.240000 1.500000 2.250000 0.960886 1.921772 
2.250000 1.500000 2.250000 0.961638 1.923276 
2.260000 1.500000 2.250000 0.962376 1.924753 
2.270000 1.500000 2.250000 0.963101 1.926202 
2.280000 1.500000 2.250000 0.963812 1.927623 
2.290000 1.500000 2.250000 0.964509 1.929018 
2.300000 1.500000 2.250000 0.965194 1.930387 
2.310000 1.500000 2.250000 0.965865 1.931730 
2.320000 1.500000 2.250000 0.966524 1.933048 
2.330000 1.500000 2.250000 0.967171 1.934341 
2.340000 1.500000 2.250000 0.967805 1.935610 
2.350000 1.500000 2.250000 0.968427 1.936855 
2.360000 1.500000 2.250000 0.969038 1.938076 
2.370000 1.500000 2.250000 0.969637 1.939274 
2.380000 1.500000 2.250000 0.970225 1.940450 
2.390000 1.500000 2.250000 0.970802 1.941603 
2.400000 1.500000 2.250000 0.971367 1.942735 
2.410000 1.500000 2.250000 0.971922 1.943845 
2.420000 1.500000 2.250000 0.972467 1.944934 
2.430000 1.500000 2.250000 0.973001 1.946002 
2.440000 1.500000 2.250000 0.973525 1.947050 
2.450000 1.500000 2.250000 0.974039 1.948078 
2.460000 1.500000 2.250000 0.974543 1.949087 
2.470000 1.500000 2.250000 0.975038 1.950076 
2.480000 1.500000 2.250000 0.975523 1.951046 
2.490000 1.500000 2.250000 0.975999 1.951998 
2.500000 1.500000 2.250000 0.976466 1.952932 
2.510000 1.500000 2.250000 0.976924 1.953848 
2.520000 1.500000 2.250000 0.977373 1.954746 
2.530000 1.500000 2.250000 0.977814 1.955627 
2.540000 1.500000 2.250000 0.978246 1.956492 
2.550000 1.500000 2.250000 0.978670 1.957340 
2.560000 1.500000 2.250000 0.979086 1.958171 
2.570000 1.500000 2.250000 0.979493 1.958987 
2.580000 1.500000 2.250000 0.979893 1.959786 
2.590000 1.500000 2.250000 0.980285 1.960571 
2.600000 1.500000 2.250000 0.980670 1.961340 
2.610000 1.500000 2.250000 0.981047 1.962095 
2.620000 1.500000 2.250000 0.981418 1.962835 
2.630000 1.500000 2.250000 0.981780 1.963561 
2.640000 1.500000 2.250000 0.982136 1.964273 
2.650000 1.500000 2.250000 0.982485 1.964971 
2.660000 1.500000 2.250000 0.982828 1.965656 
2.670000 1.500000 2.250000 0.983164 1.966327 
2.680000 1.500000 2.250000 0.983493 1.966986 
2.690000 1.500000 2.250000 0.983816 1.967631 
2.700000 1.500000 2.250000 0.984132 1.968265 
2.710000 1.500000 2.250000 0.984443 1.968886 
2.720000 1.500000 2.250000 0.984747 1.969495 
2.730000 1.500000 2.250000 0.985046 1.970092 
2.740000 1.500000 2.250000 0.985339 1.970678 
2.750000 1.500000 2.250000 0.985626 1.971252 
2.760000 1.500000 2.250000 0.985908 1.971815 
2.770000 1.500000 2.250000 0.986184 1.972368 
2.780000 1.500000 2.250000 0.986455 1.972909 
2.790000 1.500000 2.250000 0.986720 1.973440 
2.800000 1.500000 2.250000 0.986981 1.973961 
2.810000 1.500000 2.250000 0.987236 1.974472 
2.820000 1.500000 2.250000 0.987486 1.974973 
2.830000 1.500000 2.250000 0.987732 1.975464 
2.840000 1.500000 2.250000 0.987973 1.975945 
2.850000 1.500000 2.250000 0.988209 1.976417 
2.860000 1.500000 2.250000 0.988440 1.976880 
2.870000 1.500000 2.250000 0.988667 1.977334 
2.880000 1.500000 2.250000 0.988890 1.977779 
2.890000 1.500000 2.250000 0.989108 1.978216 
2.900000 1.500000 2.250000 0.989322 1.978643 
2.910000 1.500000 2.250000 0.989532 1.979063 
2.920000 1.500000 2.250000 0.989737 1.979474 
2.930000 1.500000 2.250000 0.989939 1.979878 
2.940000 1.500000 2.250000 0.990137 1.980273 
2.950000 1.500000 2.250000 0.990331 1.980661 
2.960000 1.500000 2.250000 0.990521 1.981041 
2.970000 1.500000 2.250000 0.990707 1.981414 
2.980000 1.500000 2.250000 0.990890 1.981780 
2.990000 1.500000 2.250000 0.991069 1.982138 
3.000000 1.500000 2.250000 0.991245 1.982489 
3.010000 1.500000 2.250000 0.991417 1.982834 
3.020000 1.500000 2.250000 0.991586 1.983172 
3.030000 1.500000 2.250000 0.991751 1.983503 
3.040000 1.500000 2.250000 0.991914 1.983827 
3.050000 1.500000 2.250000 0.992073 1.984146 
3.060000 1.500000 2.250000 0.992229 1.984458 
3.070000 1.500000 2.250000 0.992382 1.984764 
3.080000 1.500000 2.250000 0.992532 1.985064 
3.090000 1.500000 2.250000 0.992679 1.985358 
3.100000 1.500000 2.250000 0.992823 1.985646 
3.110000 1.500000 2.250000 0.992965 1.985929 
3.120000 1.500000 2.250000 0.993103 1.986206 
3.130000 1.500000 2.250000 0.993239 1.986478 
3.140000 1.500000 2.250000 0.993372 1.986744 
3.150000 1.500000 2.250000 0.993503 1.987006 
3.160000 1.500000 2.250000 0.993631 1.987262 
3.170000 1.500000 2.250000 0.993756 1.987513 
3.180000 1.500000 2.250000 0.993879 1.987759 
3.190000 1.500000 2.250000 0.994000 1.988000 
3.200000 1.500000 2.250000 0.994118 1.988237 
3.210000 1.500000 2.250000 0.994234 1.988469 
3.220000 1.500000 2.250000 0.994348 1.988696 
3.230000 1.500000 2.250000 0.994459 1.988919 
3.240000 1.500000 2.250000 0.994569 1.989138 
3.250000 1.500000 2.250000 0.994676 1.989352 
3.260000 1.500000 2.250000 0.994781 1.989562 
3.270000 1.500000 2.250000 0.994884 1.989768 
3.280000 1.500000 2.250000 0.994985 1.989970 
3.290000 1.500000 2.250000 0.995084 1.990167 
3.300000 1.500000 2.250000 0.995181 1.990361 
3.310000 1.500000 2.250000 0.995276 1.990552 
3.320000 1.500000 2.250000 0.995369 1.990738 
3.330000 1.500000 2.250000 0.995460 1.990921 
3.340000 1.500000 2.250000 0.995550 1.991100 
3.350000 1.500000 2.250000 0.995638 1.991276 
3.360000 1.500000 2.250000 0.995724 1.991448 
3.370000 1.500000 2.250000 0.995808 1.991617 
3.380000 1.500000 2.250000 0.995891 1.991782 
3.390000 1.500000 2.250000 0.995972 1.991944 
3.400000 1.500000 2.250000 0.996052 1.992103 
3.410000 1.500000 2.250000 0.996130 1.992259 
3.420000 1.500000 2.250000 0.996206 1.992412 
3.430000 1.500000 2.250000 0.996281 1.992562 
3.440000 1.500000 2.250000 0.996354 1.992709 
3.450000 1.500000 2.250000 0.996426 1.992853 
3.460000 1.500000 2.250000 0.996497 1.992994 
3.470000 1.500000 2.250000 0.996566 1.993132 
3.480000 1.500000 2.250000 0.996634 1.993268 
3.490000 1.500000 2.250000 0.996701 1.993401 
3.500000 1.500000 2.250000 0.996766 1.993531 
3.510000 1.500000 2.250000 0.996830 1.993659 
3.520000 1.500000 2.250000 0.996892 1.993784 
3.530000 1.500000 2.250000 0.996954 1.993907 
3.540000 1.500000 2.250000 0.997014 1.994028 
3.550000 1.500000 2.250000 0.997073 1.994146 
3.560000 1.500000 2.250000 0.997131 1.994261 
3.570000 1.500000 2.250000 0.997187 1.994375 
3.580000 1.500000 2.250000 0.997243 1.994486 
3.590000 1.500000 2.250000 0.997297 1.994595 
3.600000 1.500000 2.250000 0.997351 1.994702 
3.610000 1.500000 2.250000 0.997403 1.994806 
3.620000 1.500000 2.250000 0.997454 1.994909 
3.630000 1.500000 2.250000 0.997505 1.995010 
3.640000 1.500000 2.250000 0.997554 1.995108 
3.650000 1.500000 2.250000 0.997602 1.995205 
3.660000 1.500000 2.250000 0.997650 1.995300 
3.670000 1.500000 2.250000 0.997696 1.995393 
3.680000 1.500000 2.250000 0.997742 1.995484 
3.690000 1.500000 2.250000 0.997786 1.995573 
3.700000 1.500000 2.250000 0.997830 1.995660 
3.710000 1.500000 2.250000 0.997873 1.995746 
3.720000 1.500000 2.250000 0.997915 1.995830 
3.730000 1.500000 2.250000 0.997956 1.995913 
3.740000 1.500000 2.250000 0.997997 1.995994 
3.750000 1.500000 2.250000 0.998036 1.996073 
3.760000 1.500000 2.250000 0.998075 1.996150 
3.770000 1.500000 2.250000 0.998113 1.996227 
3.780000 1.500000 2.250000 0.998151 1.996301 
3.790000 1.500000 2.250000 0.998187 1.996374 
3.800000 1.500000 2.250000 0.998223 1.996446 
3.810000 1.500000 2.250000 0.998258 1.996516 
3.820000 1.500000 2.250000 0.998293 1.996585 
3.830000 1.500000 2.250000 0.998326 1.996653 
3.840000 1.500000 2.250000 0.998359 1.996719 
3.850000 1.500000 2.250000 0.998392 1.996784 
3.860000 1.500000 2.250000 0.998424 1.996847 
3.870000 1.500000 2.250000 0.998455 1.996910 
3.880000 1.500000 2.250000 0.998485 1.996971 
3.890000 1.500000 2.250000 0.998515 1.997031 
3.900000 1.500000 2.250000 0.998545 1.997090 
3.910000 1.500000 2.250000 0.998574 1.997147 
3.920000 1.500000 2.250000 0.998602 1.997204 
3.930000 1.500000 2.250000 0.998629 1.997259 
3.940000 1.500000 2.250000 0.998657 1.997313 
3.950000 1.500000 2.250000 0.998683 1.997366 
3.960000 1.500000 2.250000 0.998709 1.997418 
3.970000 1.500000 2.250000 0.998735 1.997469 
3.980000 1.500000 2.250000 0.998760 1.997519 
3.990000 1.500000 2.250000 0.998784 1.997569 
4.000000 1.500000 2.250000 0.998808 1.997617 
4.010000 1.500000 2.250000 0.998832 1.997664 
4.020000 1.500000 2.250000 0.998855 1.997710 
4.030000 1.500000 2.250000 0.998878 1.997755 
4.040000 1.500000 2.250000 0.998900 1.997800 
4.050000 1.500000 2.250000 0.998922 1.997843 
4.060000 1.500000 2.250000 0.998943 1.997886 
4.070000 1.500000 2.250000 0.998964 1.997928 
4.080000 1.500000 2.250000 0.998984 1.997969 
4.090000 1.500000 2.250000 0.999004 1.998009 
4.100000 1.500000 2.250000 0.999024 1.998048 
4.110000 1.500000 2.250000 0.999043 1.998087 
4.120000 1.500000 2.250000 0.999062 1.998125 
4.130000 1.500000 2.250000 0.999081 1.998162 
4.140000 1.500000 2.250000 0.999099 1.998198 
4.150000 1.500000 2.250000 0.999117 1.998234 
4.160000 1.500000 2.250000 0.999134 1.998269 
4.170000 1.500000 2.250000 0.999152 1.998303 
4.180000 1.500000 2.250000 0.999168 1.998337 
4.190000 1.500000 2.250000 0.999185 1.998370 
4.200000 1.500000 2.250000 0.999201 1.998402 
4.210000 1.500000 2.250000 0.999217 1.998434 
4.220000 1.500000 2.250000 0.999232 1.998465 
4.230000 1.500000 2.250000 0.999247 1.998495 
4.240000 1.500000 2.250000 0.999262 1.998525 
4.250000 1.500000 2.250000 0.999277 1.998554 
4.260000 1.500000 2.250000 0.999291 1.998583 
4.270000 1.500000 2.250000 0.999305 1.998611 
4.280000 1.500000 2.250000 0.999319 1.998638 
4.290000 1.500000 2.250000 0.999333 1.998665 
4.300000 1.500000 2.250000 0.999346 1.998691 
4.310000 1.500000 2.250000 0.999359 1.998717 
4.320000 1.500000 2.250000 0.999371 1.998743 
4.330000 1.500000 2.250000 0.999384 1.998768 
4.340000 1.500000 2.250000 0.999396 1.998792 
4.350000 1.500000 2.250000 0.999408 1.998816 
4.360000 1.500000 2.250000 0.999420 1.998839 
4.370000 1.500000 2.250000 0.999431 1.998862 
4.380000 1.500000 2.250000 0.999442 1.998885 
4.390000 1.500000 2.250000 0.999453 1.998907 
4.400000 1.500000 2.250000 0.999464 1.998929 
4.410000 1.500000 2.250000 0.999475 1.998950 
4.420000 1.500000 2.250000 0.999485 1.998971 
4.430000 1.500000 2.250000 0.999495 1.998991 
4.440000 1.500000 2.250000 0.999505 1.999011 
4.450000 1.500000 2.250000 0.999515 1.999030 
4.460000 1.500000 2.250000 0.999525 1.999050 
4.470000 1.500000 2.250000 0.999534 1.999069 
4.480000 1.500000 2.250000 0.999543 1.999087 
4.490000 1.500000 2.250000 0.999553 1.999105 
4.500000 1.500000 2.250000 0.999561 1.999123 
4.510000 1.500000 2.250000 0.999570 1.999140 
4.520000 1.500000 2.250000 0.999579 1.999157 
4.530000 1.500000 2.250000 0.999587 1.999174 
4.540000 1.500000 2.250000 0.999595 1.999190 
4.550000 1.500000 2.250000 0.999603 1.999206 
4.560000 1.500000 2.250000 0.999611 1.999222 
4.570000 1.500000 2.250000 0.999619 1.999237 
4.580000 1.500000 2.250000 0.999626 1.999252 
4.590000 1.500000 2.250000 0.999634 1.999267 
4.600000 1.500000 2.250000 0.999641 1.999282 
4.610000 1.500000 2.250000 0.999648 1.999296 
4.620000 1.500000 2.250000 0.999655 1.999310 
4.630000 1.500000 2.250000 0.999662 1.999324 
4.640000 1.500000 2.250000 0.999668 1.999337 
4.650000 1.500000 2.250000 0.999675 1.999350 
4.660000 1.500000 2.250000 0.999681 1.999363 
4.670000 1.500000 2.250000 0.999688 1.999376 
4.680000 1.500000 2.250000 0.999694 1.999388 
4.690000 1.500000 2.250000 0.999700 1.999400 
4.700000 1.500000 2.250000 0.999706 1.999412 
4.710000 1.500000 2.250000 0.999712 1.999424 
4.720000 1.500000 2.250000 0.999717 1.999435 
4.730000 1.500000 2.250000 0.999723 1.999446 
4.740000 1.500000 2.250000 0.999729 1.999457 
4.750000 1.500000 2.250000 0.999734 1.999468 
4.760000 1.500000 2.250000 0.999739 1.999478 
4.770000 1.500000 2.250000 0.999744 1.999489 
4.780000 1.500000 2.250000 0.999749 1.999499 
4.790000 1.500000 2.250000 0.999754 1.999509 
4.800000 1.500000 2.250000 0.999759 1.999518 
4.810000 1.500000 2.250000 0.999764 1.999528 
4.820000 1.500000 2.250000 0.999769 1.999537 
4.830000 1.500000 2.250000 0.999773 1.999547 
4.840000 1.500000 2.250000 0.999778 1.999555 
4.850000 1.500000 2.250000 0.999782 1.999564 
4.860000 1.500000 2.250000 0.999786 1.999573 
4.870000 1.500000 2.250000 0.999791 1.999581 
4.880000 1.500000 2.250000 0.999795 1.999590 
4.890000 1.500000 2.250000 0.999799 1.999598 
4.900000 1.500000 2.250000 0.999803 1.999606 
4.910000 1.500000 2.250000 0.999807 1.999614 
4.920000 1.500000 2.250000 0.999811 1.999621 
4.930000 1.500000 2.250000 0.999814 1.999629 
4.940000 1.500000 2.250000 0.999818 1.999636 
4.950000 1.500000 2.250000 0.999822 1.999643 
4.960000 1.500000 2.250000 0.999825 1.999650 
4.970000 1.500000 2.250000 0.999829 1.999657 
4.980000 1.500000 2.250000 0.999832 1.999664 
4.990000 1.500000 2.250000 0.999835 1.999671 
5.000000 1.500000 2.250000 0.999839 1.999677 
5.010000 1.500000 2.250000 0.999842 1.999684 
5.020000 1.500000 2.250000 0.999845 1.999690 
5.030000 1.500000 2.250000 0.999848 1.999696 
5.040000 1.500000 2.250000 0.999851 1.999702 
5.050000 1.500000 2.250000 0.999854 1.999708 
5.060000 1.500000 2.250000 0.999857 1.999714 
5.070000 1.500000 2.250000 0.999860 1.999719 
5.080000 1.500000 2.250000 0.999862 1.999725 
5.090000 1.500000 2.250000 0.999865 1.999730 
5.100000 1.500000 2.250000 0.999868 1.999736 
5.110000 1.500000 2.250000 0.999870 1.999741 
5.120000 1.500000 2.250000 0.999873 1.999746 
5.130000 1.500000 2.250000 0.999876 1.999751 
5.140000 1.500000 2.250000 0.999878 1.999756 
5.150000 1.500000 2.250000 0.999880 1.999761 
5.160000 1.500000 2.250000 0.999883 1.999766 
5.170000 1.500000 2.250000 0.999885 1.999770 
5.180000 1.500000 2.250000 0.999887 1.999775 
5.190000 1.500000 2.250000 0.999890 1.999779 
5.200000 1.500000 2.250000 0.999892 1.999784 
5.210000 1.500000 2.250000 0.999894 1.999788 
5.220000 1.500000 2.250000 0.999896 1.999792 
5.230000 1.500000 2.250000 0.999898 1.999796 
5.240000 1.500000 2.250000 0.999900 1.999800 
5.250000 1.500000 2.250000 0.999902 1.999804 
5.260000 1.500000 2.250000 0.999904 1.999808 
5.270000 1.500000 2.250000 0.999906 1.999812 
5.280000 1.500000 2.250000 0.999908 1.999816 
5.290000 1.500000 2.250000 0.999910 1.999819 
5.300000 1.500000 2.250000 0.999911 1.999823 
5.310000 1.500000 2.250000 0.999913 1.999826 
5.320000 1.500000 2.250000 0.999915 1.999830 
5.330000 1.500000 2.250000 0.999917 1.999833 
5.340000 1.500000 2.250000 0.999918 1.999836 
5.350000 1.500000 2.250000 0.999920 1.999840 
5.360000 1.500000 2.250000 0.999921 1.999843 
5.370000 1.500000 2.250000 0.999923 1.999846 
5.380000 1.500000 2.250000 0.999925 1.999849 
5.390000 1.500000 2.250000 0.999926 1.999852 
5.400000 1.500000 2.250000 0.999927 1.999855 
5.410000 1.500000 2.250000 0.999929 1.999858 
5.420000 1.500000 2.250000 0.999930 1.999861 
5.430000 1.500000 2.250000 0.999932 1.999863 
5.440000 1.500000 2.250000 0.999933 1.999866 
5.450000 1.500000 2.250000 0.999934 1.999869 
5.460000 1.500000 2.250000 0.999936 1.999871 
5.470000 1.500000 2.250000 0.999937 1.999874 
5.480000 1.500000 2.250000 0.999938 1.999876 
5.490000 1.500000 2.250000 0.999939 1.999879 
5.500000 1.500000 2.250000 0.999941 1.999881 
5.510000 1.500000 2.250000 0.999942 1.999884 
5.520000 1.500000 2.250000 0.999943 1.999886 
5.530000 1.500000 2.250000 0.999944 1.999888 
5.540000 1.500000 2.250000 0.999945 1.999890 
5.550000 1.500000 2.250000 0.999946 1.999893 
5.560000 1.500000 2.250000 0.999947 1.999895 
5.570000 1.500000 2.250000 0.999948 1.999897 
5.580000 1.500000 2.250000 0.999949 1.999899 
5.590000 1.500000 2.250000 0.999950 1.999901 
5.600000 1.500000 2.250000 0.999951 1.999903 
5.610000 1.500000 2.250000 0.999952 1.999905 
5.620000 1.500000 2.250000 0.999953 1.999907 
5.630000 1.500000 2.250000 0.999954 1.999908 
5.640000 1.500000 2.250000 0.999955 1.999910 
5.650000 1.500000 2.250000 0.999956 1.999912 
5.660000 1.500000 2.250000 0.999957 1.999914 
5.670000 1.500000 2.250000 0.999958 1.999915 
5.680000 1.500000 2.250000 0.999959 1.999917 
5.690000 1.500000 2.250000 0.999959 1.999919 
5.700000 1.500000 2.250000 0.999960 1.999920 
5.710000 1.500000 2.250000 0.999961 1.999922 
5.720000 1.500000 2.250000 0.999962 1.999924 
5.730000 1.500000 2.250000 0.999963 1.999925 
5.740000 1.500000 2.250000 0.999963 1.999927 
5.750000 1.500000 2.250000 0.999964 1.999928 
5.760000 1.500000 2.250000 0.999965 1.999929 
5.770000 1.500000 2.250000 0.999965 1.999931 
5.780000 1.500000 2.250000 0.999966 1.999932 
5.790000 1.500000 2.250000 0.999967 1.999934 
5.800000 1.500000 2.250000 0.999967 1.999935 
5.810000 1.500000 2.250000 0.999968 1.999936 
5.820000 1.500000 2.250000 0.999969 1.999937 
5.830000 1.500000 2.250000 0.999969 1.999939 
5.840000 1.500000 2.250000 0.999970 1.999940 
5.850000 1.500000 2.250000 0.999971 1.999941 
5.860000 1.500000 2.250000 0.999971 1.999942 
5.870000 1.500000 2.250000 0.999972 1.999943 
5.880000 1.500000 2.250000 0.999972 1.999944 
5.890000 1.500000 2.250000 0.999973 1.999946 
5.900000 1.500000 2.250000 0.999973 1.999947 
5.910000 1.500000 2.250000 0.999974 1.999948 
5.920000 1.500000 2.250000 0.999974 1.999949 
5.930000 1.500000 2.250000 0.999975 1.999950 
5.940000 1.500000 2.250000 0.999975 1.999951 
5.950000 1.500000 2.250000 0.999976 1.999952 
5.960000 1.500000 2.250000 0.999976 1.999953 
5.970000 1.500000 2.250000 0.999977 1.999954 
5.980000 1.500000 2.250000 0.999977 1.999955 
5.990000 1.500000 2.250000 0.999978 1.999955 
6.000000 1.500000 2.250000 0.999978 1.999956 
